Wavenumbercm-1
4001.387254
3997.658096
3993.928937
3990.199778
3986.47062
3982.741461
3979.012302
3975.283144
3971.553985
3967.824826
3964.095668
3960.366509
3956.63735
3952.908191
3949.179033
3945.449874
3941.720715
3937.991557
3934.262398
3930.533239
3926.804081
3923.074922
3919.345763
3915.616605
3911.887446
3908.158287
3904.429129
3900.69997
3896.970811
3893.241653
3889.512494
3885.783335
3882.054177
3878.325018
3874.595859
3870.866701
3867.137542
3863.408383
3859.679225
3855.950066
3852.220907
3848.491749
3844.76259
3841.033431
3837.304273
3833.575114
3829.845955
3826.116797
3822.387638
3818.658479
3814.929321
3811.200162
3807.471003
3803.741845
3800.012686
3796.283527
3792.554369
3788.82521
3785.096051
3781.366893
3777.637734
3773.908575
3770.179417
3766.450258
3762.721099
3758.991941
3755.262782
3751.533623
3747.804465
3744.075306
3740.346147
3736.616989
3732.88783
3729.158671
3725.429513
3721.700354
3717.971195
3714.242037
3710.512878
3706.783719
3703.054561
3699.325402
3695.596243
3691.867085
3688.137926
3684.408767
3680.679609
3676.95045
3673.221291
3669.492132
3665.762974
3662.033815
3658.304656
3654.575498
3650.846339
3647.11718
3643.388022
3639.658863
3635.929704
3632.200546
3628.471387
3624.742228
3621.01307
3617.283911
3613.554752
3609.825594
3606.096435
3602.367276
3598.638118
3594.908959
3591.1798
3587.450642
3583.721483
3579.992324
3576.263166
3572.534007
3568.804848
3565.07569
3561.346531
3557.617372
3553.888214
3550.159055
3546.429896
3542.700738
3538.971579
3535.24242
3531.513262
3527.784103
3524.054944
3520.325786
3516.596627
3512.867468
3509.13831
3505.409151
3501.679992
3497.950834
3494.221675
3490.492516
3486.763358
3483.034199
3479.30504
3475.575882
3471.846723
3468.117564
3464.388406
3460.659247
3456.930088
3453.20093
3449.471771
3445.742612
3442.013454
3438.284295
3434.555136
3430.825978
3427.096819
3423.36766
3419.638502
3415.909343
3412.180184
3408.451026
3404.721867
3400.992708
3397.263549
3393.534391
3389.805232
3386.076073
3382.346915
3378.617756
3374.888597
3371.159439
3367.43028
3363.701121
3359.971963
3356.242804
3352.513645
3348.784487
3345.055328
3341.326169
3337.597011
3333.867852
3330.138693
3326.409535
3322.680376
3318.951217
3315.222059
3311.4929
3307.763741
3304.034583
3300.305424
3296.576265
3292.847107
3289.117948
3285.388789
3281.659631
3277.930472
3274.201313
3270.472155
3266.742996
3263.013837
3259.284679
3255.55552
3251.826361
3248.097203
3244.368044
3240.638885
3236.909727
3233.180568
3229.451409
3225.722251
3221.993092
3218.263933
3214.534775
3210.805616
3207.076457
3203.347299
3199.61814
3195.888981
3192.159823
3188.430664
3184.701505
3180.972347
3177.243188
3173.514029
3169.784871
3166.055712
3162.326553
3158.597395
3154.868236
3151.139077
3147.409919
3143.68076
3139.951601
3136.222443
3132.493284
3128.764125
3125.034966
3121.305808
3117.576649
3113.84749
3110.118332
3106.389173
3102.660014
3098.930856
3095.201697
3091.472538
3087.74338
3084.014221
3080.285062
3076.555904
3072.826745
3069.097586
3065.368428
3061.639269
3057.91011
3054.180952
3050.451793
3046.722634
3042.993476
3039.264317
3035.535158
3031.806
3028.076841
3024.347682
3020.618524
3016.889365
3013.160206
3009.431048
3005.701889
3001.97273
2998.243572
2994.514413
2990.785254
2987.056096
2983.326937
2979.597778
2975.86862
2972.139461
2968.410302
2964.681144
2960.951985
2957.222826
2953.493668
2949.764509
2946.03535
2942.306192
2938.577033
2934.847874
2931.118716
2927.389557
2923.660398
2919.93124
2916.202081
2912.472922
2908.743764
2905.014605
2901.285446
2897.556288
2893.827129
2890.09797
2886.368812
2882.639653
2878.910494
2875.181336
2871.452177
2867.723018
2863.99386
2860.264701
2856.535542
2852.806383
2849.077225
2845.348066
2841.618907
2837.889749
2834.16059
2830.431431
2826.702273
2822.973114
2819.243955
2815.514797
2811.785638
2808.056479
2804.327321
2800.598162
2796.869003
2793.139845
2789.410686
2785.681527
2781.952369
2778.22321
2774.494051
2770.764893
2767.035734
2763.306575
2759.577417
2755.848258
2752.119099
2748.389941
2744.660782
2740.931623
2737.202465
2733.473306
2729.744147
2726.014989
2722.28583
2718.556671
2714.827513
2711.098354
2707.369195
2703.640037
2699.910878
2696.181719
2692.452561
2688.723402
2684.994243
2681.265085
2677.535926
2673.806767
2670.077609
2666.34845
2662.619291
2658.890133
2655.160974
2651.431815
2647.702657
2643.973498
2640.244339
2636.515181
2632.786022
2629.056863
2625.327705
2621.598546
2617.869387
2614.140229
2610.41107
2606.681911
2602.952753
2599.223594
2595.494435
2591.765277
2588.036118
2584.306959
2580.5778
2576.848642
2573.119483
2569.390324
2565.661166
2561.932007
2558.202848
2554.47369
2550.744531
2547.015372
2543.286214
2539.557055
2535.827896
2532.098738
2528.369579
2524.64042
2520.911262
2517.182103
2513.452944
2509.723786
2505.994627
2502.265468
2498.53631
2494.807151
2491.077992
2487.348834
2483.619675
2479.890516
2476.161358
2472.432199
2468.70304
2464.973882
2461.244723
2457.515564
2453.786406
2450.057247
2446.328088
2442.59893
2438.869771
2435.140612
2431.411454
2427.682295
2423.953136
2420.223978
2416.494819
2412.76566
2409.036502
2405.307343
2401.578184
2397.849026
2394.119867
2390.390708
2386.66155
2382.932391
2379.203232
2375.474074
2371.744915
2368.015756
2364.286598
2360.557439
2356.82828
2353.099122
2349.369963
2345.640804
2341.911646
2338.182487
2334.453328
2330.72417
2326.995011
2323.265852
2319.536694
2315.807535
2312.078376
2308.349217
2304.620059
2300.8909
2297.161741
2293.432583
2289.703424
2285.974265
2282.245107
2278.515948
2274.786789
2271.057631
2267.328472
2263.599313
2259.870155
2256.140996
2252.411837
2248.682679
2244.95352
2241.224361
2237.495203
2233.766044
2230.036885
2226.307727
2222.578568
2218.849409
2215.120251
2211.391092
2207.661933
2203.932775
2200.203616
2196.474457
2192.745299
2189.01614
2185.286981
2181.557823
2177.828664
2174.099505
2170.370347
2166.641188
2162.912029
2159.182871
2155.453712
2151.724553
2147.995395
2144.266236
2140.537077
2136.807919
2133.07876
2129.349601
2125.620443
2121.891284
2118.162125
2114.432967
2110.703808
2106.974649
2103.245491
2099.516332
2095.787173
2092.058015
2088.328856
2084.599697
2080.870539
2077.14138
2073.412221
2069.683063
2065.953904
2062.224745
2058.495587
2054.766428
2051.037269
2047.308111
2043.578952
2039.849793
2036.120634
2032.391476
2028.662317
2024.933158
2021.204
2017.474841
2013.745682
2010.016524
2006.287365
2002.558206
1998.829048
1995.099889
1991.37073
1987.641572
1983.912413
1980.183254
1976.454096
1972.724937
1968.995778
1965.26662
1961.537461
1957.808302
1954.079144
1950.349985
1946.620826
1942.891668
1939.162509
1935.43335
1931.704192
1927.975033
1924.245874
1920.516716
1916.787557
1913.058398
1909.32924
1905.600081
1901.870922
1898.141764
1894.412605
1890.683446
1886.954288
1883.225129
1879.49597
1875.766812
1872.037653
1868.308494
1864.579336
1860.850177
1857.121018
1853.39186
1849.662701
1845.933542
1842.204384
1838.475225
1834.746066
1831.016908
1827.287749
1823.55859
1819.829432
1816.100273
1812.371114
1808.641956
1804.912797
1801.183638
1797.45448
1793.725321
1789.996162
1786.267004
1782.537845
1778.808686
1775.079528
1771.350369
1767.62121
1763.892051
1760.162893
1756.433734
1752.704575
1748.975417
1745.246258
1741.517099
1737.787941
1734.058782
1730.329623
1726.600465
1722.871306
1719.142147
1715.412989
1711.68383
1707.954671
1704.225513
1700.496354
1696.767195
1693.038037
1689.308878
1685.579719
1681.850561
1678.121402
1674.392243
1670.663085
1666.933926
1663.204767
1659.475609
1655.74645
1652.017291
1648.288133
1644.558974
1640.829815
1637.100657
1633.371498
1629.642339
1625.913181
1622.184022
1618.454863
1614.725705
1610.996546
1607.267387
1603.538229
1599.80907
1596.079911
1592.350753
1588.621594
1584.892435
1581.163277
1577.434118
1573.704959
1569.975801
1566.246642
1562.517483
1558.788325
1555.059166
1551.330007
1547.600849
1543.87169
1540.142531
1536.413373
1532.684214
1528.955055
1525.225897
1521.496738
1517.767579
1514.038421
1510.309262
1506.580103
1502.850945
1499.121786
1495.392627
1491.663468
1487.93431
1484.205151
1480.475992
1476.746834
1473.017675
1469.288516
1465.559358
1461.830199
1458.10104
1454.371882
1450.642723
1446.913564
1443.184406
1439.455247
1435.726088
1431.99693
1428.267771
1424.538612
1420.809454
1417.080295
1413.351136
1409.621978
1405.892819
1402.16366
1398.434502
1394.705343
1390.976184
1387.247026
1383.517867
1379.788708
1376.05955
1372.330391
1368.601232
1364.872074
1361.142915
1357.413756
1353.684598
1349.955439
1346.22628
1342.497122
1338.767963
1335.038804
1331.309646
1327.580487
1323.851328
1320.12217
1316.393011
1312.663852
1308.934694
1305.205535
1301.476376
1297.747218
1294.018059
1290.2889
1286.559742
1282.830583
1279.101424
1275.372266
1271.643107
1267.913948
1264.18479
1260.455631
1256.726472
1252.997314
1249.268155
1245.538996
1241.809838
1238.080679
1234.35152
1230.622362
1226.893203
1223.164044
1219.434885
1215.705727
1211.976568
1208.247409
1204.518251
1200.789092
1197.059933
1193.330775
1189.601616
1185.872457
1182.143299
1178.41414
1174.684981
1170.955823
1167.226664
1163.497505
1159.768347
1156.039188
1152.310029
1148.580871
1144.851712
1141.122553
1137.393395
1133.664236
1129.935077
1126.205919
1122.47676
1118.747601
1115.018443
1111.289284
1107.560125
1103.830967
1100.101808
1096.372649
1092.643491
1088.914332
1085.185173
1081.456015
1077.726856
1073.997697
1070.268539
1066.53938
1062.810221
1059.081063
1055.351904
1051.622745
1047.893587
1044.164428
1040.435269
1036.706111
1032.976952
1029.247793
1025.518635
1021.789476
1018.060317
1014.331159
1010.602
1006.872841
1003.143683
999.4145239
995.6853652
991.9562065
988.2270479
984.4978892
980.7687305
977.0395719
973.3104132
969.5812545
965.8520958
962.1229372
958.3937785
954.6646198
950.9354612
947.2063025
943.4771438
939.7479851
936.0188265
932.2896678
928.5605091
924.8313505
921.1021918
917.3730331
913.6438745
909.9147158
906.1855571
902.4563984
898.7272398
894.9980811
891.2689224
887.5397638
883.8106051
880.0814464
876.3522877
872.6231291
868.8939704
865.1648117
861.4356531
857.7064944
853.9773357
850.248177
846.5190184
842.7898597
839.060701
835.3315424
831.6023837
827.873225
824.1440663
820.4149077
816.685749
812.9565903
809.2274317
805.498273
801.7691143
798.0399556
794.310797
790.5816383
786.8524796
783.123321
779.3941623
775.6650036
771.9358449
768.2066863
764.4775276
760.7483689
757.0192103
753.2900516
749.5608929
745.8317342
742.1025756
738.3734169
734.6442582
730.9150996
727.1859409
723.4567822
719.7276235
715.9984649
712.2693062
708.5401475
704.8109889
701.0818302
697.3526715
693.6235128
689.8943542
686.1651955
682.4360368
678.7068782
674.9777195
671.2485608
667.5194021
663.7902435
660.0610848
656.3319261
652.6027675
648.8736088
